* Sea-Bird SBE19plus Data File:
* FileName = C:\Users\FWCP_NRP\Documents\Seabird\Data\Kootenay\2018\KL_27Aug2018\KL_27Aug2018008.hex
* Software Version 1.59
* Temperature SN =  4708
* Conductivity SN =  4708
* System UpLoad Time = Aug 28 2018 14:54:13
* ds
* SeacatPlus V 1.4D  SERIAL NO. 4708    28 Aug 2018  13:35:42
* vbatt = 13.2, vlith =  8.1, ioper =  61.8 ma, ipump =  59.5 ma,
* iext01 =   5.1 ma, iext23 =  46.2 ma,
* status = not logging
* number of scans to average = 1
* samples = 26493, free = 466954, casts = 8
* mode = profile, minimum cond freq = 0, pump delay = 45 sec
* autorun = no, ignore magnetic switch = no
* battery type = ALKALINE, battery cutoff =  7.5 volts
* pressure sensor = strain gauge, range = 508.0
* SBE 38 = no, Gas Tension Device = no
* Ext Volt 0 = yes, Ext Volt 1 = no, Ext Volt 2 = yes, Ext Volt 3 = yes
* echo commands = yes
* output format = raw HEX

* S>
*
* SeacatPlus V 1.4D  SERIAL NO. 4708    28 Aug 2018  13:35:49
* temperature:  16-jan-18
*     TA0 = 1.239424e-03
*     TA1 = 2.605655e-04
*     TA2 = 3.391093e-07
*     TA3 = 1.381880e-07
*     TOFFSET = 0.000000e+00
* conductivity:  16-jan-18
*     G = -1.038141e+00
*     H = 1.290503e-01
*     I = -1.816061e-04
*     J = 3.041159e-05
*     CF0 = 2.839489e+03
*     CPCOR = -9.570000e-08
*     CTCOR = 3.250000e-06
*     CSLOPE = 1.000000e+00
* pressure S/N = 6483, range = 508 psia:  2-jan-18
*     PA0 = 1.360246e-01
*     PA1 = 1.548408e-03
*     PA2 = 6.812038e-12
*     PTCA0 = 5.248322e+05
*     PTCA1 = 7.011187e+00
*     PTCA2 = -1.372152e-01
*     PTCB0 = 2.509413e+01
*     PTCB1 = 6.250000e-04
*     PTCB2 = 0.000000e+00
*     PTEMPA0 = -7.462920e+01
*     PTEMPA1 = 4.894346e+01
*     PTEMPA2 = -2.215415e-01
*     POFFSET = 0.000000e+00
* volt 0: offset = -4.637579e-02, slope = 1.248669e+00
* volt 1: offset = -4.611579e-02, slope = 1.249857e+00
* volt 2: offset = -4.590105e-02, slope = 1.249168e+00
* volt 3: offset = -4.639368e-02, slope = 1.248855e+00
*     EXTFREQSF = 1.000011e+00
* dh
* cast   8 27 Aug 2018 18:05:39 samples 23653 to 26493, avg = 1, stop = mag switch

* S>
# nquan = 11
# nvalues = 1445                                  
# units = specified
# name 0 = depFM: Depth [fresh water, m]
# name 1 = tv290C: Temperature [ITS-90, deg C]
# name 2 = sbeox0Mg/L: Oxygen, SBE 43 [mg/l]
# name 3 = sbeox0PS: Oxygen, SBE 43 [% saturation]
# name 4 = specc: Specific Conductance [uS/cm]
# name 5 = c0uS/cm: Conductivity [uS/cm]
# name 6 = sal00: Salinity, Practical [PSU]
# name 7 = obsscufa: OBS, Turner SCUFA [NTU]
# name 8 = flScufa: Fluorescence, Turner SCUFA [ug/L]
# name 9 = f1: Frequency 1
# name 10 = flag:  0.000e+00
# span 0 =     -0.667,     97.154                 
# span 1 =     4.0549,    17.5029                 
# span 2 =     6.7586,    10.9382                 
# span 3 =     70.409,    106.847                 
# span 4 =      2.663,    185.426                 
# span 5 =   2.165779, 107.754734                 
# span 6 =     0.0084,     0.0826                 
# span 7 =     0.2533,     0.7416                 
# span 8 =     1.0523,     1.7237                 
# span 9 =   2839.551,   2853.953                 
# span 10 = 0.0000e+00, 0.0000e+00                
# interval = seconds: 0.25
# start_time = Aug 27 2018 18:05:39 [Instrument's time stamp, header]
# bad_flag = -9.990e-29
# <Sensors count="6" >
#   <sensor Channel="1" >
#     <!-- Count, Temperature -->
#     <TemperatureSensor SensorID="58" >
#       <SerialNumber>4708</SerialNumber>
#       <CalibrationDate>16-Jan-18</CalibrationDate>
#       <A0>1.23942445e-003</A0>
#       <A1>2.60565509e-004</A1>
#       <A2>3.39109318e-007</A2>
#       <A3>1.38188049e-007</A3>
#       <Slope>1.00000000</Slope>
#       <Offset>0.0000</Offset>
#     </TemperatureSensor>
#   </sensor>
#   <sensor Channel="2" >
#     <!-- Frequency 0, Conductivity -->
#     <ConductivitySensor SensorID="3" >
#       <SerialNumber>4708</SerialNumber>
#       <CalibrationDate>16-Jan-18</CalibrationDate>
#       <UseG_J>1</UseG_J>
#       <!-- Cell const and series R are applicable only for wide range sensors. -->
#       <SeriesR>0.0000</SeriesR>
#       <CellConst>2000.0000</CellConst>
#       <ConductivityType>0</ConductivityType>
#       <Coefficients equation="0" >
#         <A>0.00000000e+000</A>
#         <B>0.00000000e+000</B>
#         <C>0.00000000e+000</C>
#         <D>0.00000000e+000</D>
#         <M>0.0</M>
#         <CPcor>-9.57000000e-008</CPcor>
#       </Coefficients>
#       <Coefficients equation="1" >
#         <G>-1.03814148e+000</G>
#         <H>1.29050304e-001</H>
#         <I>-1.81606081e-004</I>
#         <J>3.04115917e-005</J>
#         <CPcor>-9.57000000e-008</CPcor>
#         <CTcor>3.2500e-006</CTcor>
#         <!-- WBOTC not applicable unless ConductivityType = 1. -->
#         <WBOTC>0.00000000e+000</WBOTC>
#       </Coefficients>
#       <Slope>1.00000000</Slope>
#       <Offset>0.00000</Offset>
#     </ConductivitySensor>
#   </sensor>
#   <sensor Channel="3" >
#     <!-- Count, Pressure, Strain Gauge -->
#     <PressureSensor SensorID="46" >
#       <SerialNumber>4708</SerialNumber>
#       <CalibrationDate>2-Jan-18 </CalibrationDate>
#       <PA0>1.36024568e-001</PA0>
#       <PA1>1.54840836e-003</PA1>
#       <PA2>6.81203704e-012</PA2>
#       <PTEMPA0>-7.46292029e+001</PTEMPA0>
#       <PTEMPA1>4.89434635e+001</PTEMPA1>
#       <PTEMPA2>-2.21541542e-001</PTEMPA2>
#       <PTCA0>5.24832140e+005</PTCA0>
#       <PTCA1>7.01118705e+000</PTCA1>
#       <PTCA2>-1.37215194e-001</PTCA2>
#       <PTCB0>2.50941250e+001</PTCB0>
#       <PTCB1>6.25000000e-004</PTCB1>
#       <PTCB2>0.00000000e+000</PTCB2>
#       <Offset>0.000000</Offset>
#     </PressureSensor>
#   </sensor>
#   <sensor Channel="4" >
#     <!-- A/D voltage 0, Oxygen, SBE 43 -->
#     <OxygenSensor SensorID="38" >
#       <SerialNumber>0740</SerialNumber>
#       <CalibrationDate>13-Jan-18</CalibrationDate>
#       <Use2007Equation>1</Use2007Equation>
#       <CalibrationCoefficients equation="0" >
#         <!-- Coefficients for Owens-Millard equation. -->
#         <Boc>0.0000</Boc>
#         <Soc>0.0000e+000</Soc>
#         <offset>0.0000</offset>
#         <Pcor>0.00e+000</Pcor>
#         <Tcor>0.0000</Tcor>
#         <Tau>0.0</Tau>
#       </CalibrationCoefficients>
#       <CalibrationCoefficients equation="1" >
#         <!-- Coefficients for Sea-Bird equation - SBE calibration in 2007 and later. -->
#         <Soc>4.1541e-001</Soc>
#         <offset>-0.4774</offset>
#         <A>-4.1997e-003</A>
#         <B> 1.9152e-004</B>
#         <C>-2.1990e-006</C>
#         <D0> 2.5826e+000</D0>
#         <D1> 1.92634e-004</D1>
#         <D2>-4.64803e-002</D2>
#         <E> 3.6000e-002</E>
#         <Tau20> 0.9800</Tau20>
#         <H1>-3.3000e-002</H1>
#         <H2> 5.0000e+003</H2>
#         <H3> 1.4500e+003</H3>
#       </CalibrationCoefficients>
#     </OxygenSensor>
#   </sensor>
#   <sensor Channel="5" >
#     <!-- A/D voltage 1, Fluorometer, Turner SCUFA -->
#     <FluoroTurnerSCUFA_Sensor SensorID="17" >
#       <SerialNumber>0640</SerialNumber>
#       <CalibrationDate>11-Jan-2005</CalibrationDate>
#       <B>0.00000000e+000</B>
#       <MX>1.00000000e+000</MX>
#       <MY>0.00000000e+000</MY>
#       <Units>4</Units>
#       <ScaleFactor>1.60000000e+001</ScaleFactor>
#       <Offset>0.00000000e+000</Offset>
#     </FluoroTurnerSCUFA_Sensor>
#   </sensor>
#   <sensor Channel="6" >
#     <!-- A/D voltage 2, OBS, Turner SCUFA -->
#     <OBS_TurnerSCUFA_Sensor SensorID="35" >
#       <SerialNumber>0640</SerialNumber>
#       <CalibrationDate>11-Jan-2005</CalibrationDate>
#       <ScaleFactor>4.00000000e+001</ScaleFactor>
#       <Offset>0.00000000e+000</Offset>
#     </OBS_TurnerSCUFA_Sensor>
#   </sensor>
# </Sensors>
# datcnv_date = Aug 28 2018 14:57:46, 7.23.2 [datcnv_vars = 10]
# datcnv_in = C:\Users\FWCP_NRP\Documents\Seabird\Data\Kootenay\2018\KL_27Aug2018\KL_27Aug2018008.hex C:\Users\FWCP_NRP\Documents\Seabird\Configuration File\SBE19plus_4708_2018.xmlcon
# datcnv_skipover = 0
# datcnv_ox_hysteresis_correction = yes
# datcnv_ox_tau_correction = yes
# file_type = ascii
*END*
     -0.656    15.6633     9.5732     96.299      2.698   2.194344     0.0084     0.5188     1.5039   2839.555  0.000e+00
     -0.648    15.6636     9.5735     96.303      2.733   2.222908     0.0084     0.5219     1.5076   2839.559  0.000e+00
     -0.645    15.6642     9.5755     96.324      2.733   2.222908     0.0084     0.6836     1.7212   2839.559  0.000e+00
     -0.643    15.6658     9.5744     96.316      2.733   2.222908     0.0084     0.6775     1.7200   2839.559  0.000e+00
     -0.647    15.6669     9.5750     96.325      2.663   2.165779     0.0084     0.6867     1.7200   2839.551  0.000e+00
     -0.653    15.6668     9.5759     96.334      2.838   2.308601     0.0084     0.6775     1.7188   2839.570  0.000e+00
     -0.658    15.6670     9.5720     96.295      3.260   2.651377     0.0085     0.6928     1.7188   2839.617  0.000e+00
     -0.661    15.6700     9.5742     96.324      5.015   4.079672     0.0090     0.6897     1.7139   2839.813  0.000e+00
     -0.667    15.6798     9.5718     96.320      4.909   3.993972     0.0090     0.6867     1.7212   2839.801  0.000e+00
     -0.665    15.6880     9.5695     96.313      5.013   4.079672     0.0091     0.6775     1.7237   2839.813  0.000e+00
     -0.656    15.6912     9.5680     96.306     10.629   8.650877     0.0110     0.6775     1.7212   2840.438  0.000e+00
     -0.652    15.7761     9.5525     96.330     33.739  27.517741     0.0202     0.6775     1.7139   2843.016  0.000e+00
     -0.662    16.2113     9.4649     96.326      9.386   7.736542     0.0107     0.6836     1.7188   2840.313  0.000e+00
     -0.659    16.5271     9.4030     96.336      7.801   6.479411     0.0103     0.6867     1.7237   2840.141  0.000e+00
     -0.660    16.6270     9.3847     96.350      6.993   5.822307     0.0101     0.6775     1.7151   2840.051  0.000e+00
     -0.635    16.6699     9.3760     96.349     13.979  11.651241     0.0126     0.6897     1.7224   2840.848  0.000e+00
     -0.574    16.8441     9.3418     96.359     59.100  49.464693     0.0315     0.6775     1.7224   2846.012  0.000e+00
     -0.521    17.0182     9.3055     96.344     91.237  76.680187     0.0458     0.6744     1.7212   2849.723  0.000e+00
     -0.497    17.1442     9.2805     96.344    121.113 102.094213     0.0594     0.7416     1.5064   2853.184  0.000e+00
     -0.489    17.2306     9.2591     96.295    120.797 102.036781     0.0593     0.7385     1.5076   2853.176  0.000e+00
     -0.453    17.2864     9.2503     96.315    120.807 102.180271     0.0593     0.7324     1.5039   2853.195  0.000e+00
     -0.395    17.3241     9.2387     96.270    120.700 102.180259     0.0593     0.7385     1.5088   2853.195  0.000e+00
     -0.332    17.3482     9.2296     96.224    120.631 102.180251     0.0593     0.3296     1.3416   2853.195  0.000e+00
     -0.286    17.3711     9.2188     96.157    120.566 102.180244     0.0592     0.3174     1.3404   2853.195  0.000e+00
     -0.240    17.3944     9.2093     96.104    120.567 102.237640     0.0592     0.3174     1.3428   2853.203  0.000e+00
     -0.212    17.4095     9.2135     96.178    120.457 102.180232     0.0592     0.3204     1.3452   2853.195  0.000e+00
     -0.232    17.4177     9.2289     96.355    120.264 102.036722     0.0591     0.3723     1.3428   2853.176  0.000e+00
     -0.253    17.4222     9.2549     96.635    120.319 102.094123     0.0591     0.3662     1.3440   2853.184  0.000e+00
     -0.257    17.4243     9.2844     96.947    119.704 101.577502     0.0589     0.3845     1.3391   2853.113  0.000e+00
     -0.228    17.4248     9.3179     97.298    119.601 101.491400     0.0588     0.3632     1.3452   2853.102  0.000e+00
     -0.134    17.4271     9.3977     98.137    120.407 102.180227     0.0592     0.3235     1.3404   2853.195  0.000e+00
     -0.016    17.4287     9.4322     98.500    120.301 102.094123     0.0591     0.3265     1.3452   2853.184  0.000e+00
      0.097    17.4318     9.3915     98.081    120.292 102.094123     0.0591     0.3235     1.3428   2853.184  0.000e+00
      0.195    17.4351     9.2898     97.025    120.215 102.036720     0.0591     0.3082     1.3428   2853.176  0.000e+00
      0.277    17.4376     9.1216     95.273    120.073 101.921915     0.0590     0.3235     1.3440   2853.160  0.000e+00
      0.328    17.4393     8.9110     93.077    120.068 101.921915     0.0590     0.3235     1.3416   2853.160  0.000e+00
      0.332    17.4379     8.6771     90.631    119.970 101.835812     0.0590     0.3174     1.3477   2853.148  0.000e+00
      0.298    17.4121     8.4436     88.146    120.043 101.835820     0.0590     0.3235     1.3452   2853.148  0.000e+00
      0.272    17.3812     8.2263     85.822    120.131 101.835830     0.0590     0.3204     1.3513   2853.148  0.000e+00
      0.267    17.3667     8.0421     83.875    120.375 102.008042     0.0591     0.3143     1.3574   2853.172  0.000e+00
      0.282    17.3781     7.9054     82.469    120.444 102.094143     0.0592     0.3265     1.3574   2853.184  0.000e+00
      0.318    17.3954     7.8181     81.588    120.497 102.180242     0.0592     0.3204     1.3538   2853.195  0.000e+00
      0.350    17.4102     7.7946     81.367    120.252 102.008028     0.0591     0.3082     1.3440   2853.172  0.000e+00
      0.367    17.4188     7.8282     81.732    120.126 101.921922     0.0590     0.3113     1.3440   2853.160  0.000e+00
      0.362    17.4239     7.9037     82.529    120.010 101.835817     0.0590     0.3174     1.3440   2853.148  0.000e+00
      0.336    17.4227     7.9726     83.247    119.912 101.749714     0.0589     0.3143     1.3416   2853.137  0.000e+00
      0.302    17.4158     8.0276     83.809    120.236 102.008026     0.0591     0.3052     1.3440   2853.172  0.000e+00
      0.278    17.4147     8.0579     84.124    120.340 102.094130     0.0591     0.3235     1.3391   2853.184  0.000e+00
      0.271    17.4194     8.0753     84.313    120.327 102.094129     0.0591     0.3204     1.3416   2853.184  0.000e+00
      0.286    17.4227     8.0779     84.346    120.419 102.180232     0.0592     0.3235     1.3465   2853.195  0.000e+00
      0.312    17.4245     8.0477     84.034    120.414 102.180232     0.0592     0.3082     1.3562   2853.195  0.000e+00
      0.340    17.4257     7.9972     83.509    120.411 102.180232     0.0592     0.3174     1.3562   2853.195  0.000e+00
      0.358    17.4237     7.9423     82.932    120.112 101.921920     0.0590     0.3174     1.3562   2853.160  0.000e+00
      0.359    17.4218     7.8881     82.363    120.117 101.921921     0.0590     0.3204     1.3550   2853.160  0.000e+00
      0.346    17.4203     7.8434     81.893    120.054 101.864519     0.0590     0.3143     1.3367   2853.152  0.000e+00
      0.330    17.4184     7.8219     81.666    120.431 102.180234     0.0592     0.3174     1.3416   2853.195  0.000e+00
      0.316    17.4199     7.8240     81.690    120.224 102.008025     0.0591     0.3235     1.3404   2853.172  0.000e+00
      0.311    17.4254     7.8418     81.886    120.310 102.094127     0.0591     0.3296     1.3428   2853.184  0.000e+00
      0.313    17.4288     7.8751     82.239    120.402 102.180231     0.0592     0.3204     1.3404   2853.195  0.000e+00
      0.311    17.4287     7.9033     82.534    120.402 102.180231     0.0592     0.3235     1.3404   2853.195  0.000e+00
      0.311    17.4264     7.9020     82.516    120.307 102.094127     0.0591     0.3235     1.3465   2853.184  0.000e+00
      0.308    17.4243     7.8754     82.235    120.313 102.094128     0.0591     0.3174     1.3428   2853.184  0.000e+00
      0.308    17.4256     7.8225     81.685    120.310 102.094127     0.0591     0.3235     1.3245   2853.184  0.000e+00
      0.316    17.4304     7.7655     81.097    120.296 102.094126     0.0591     0.3296     1.3245   2853.184  0.000e+00
      0.329    17.4357     7.7431     80.872    120.382 102.180228     0.0592     0.3357     1.3245   2853.195  0.000e+00
      0.338    17.4398     7.7335     80.779    120.269 102.094123     0.0591     0.3082     1.3208   2853.184  0.000e+00
      0.340    17.4394     7.7530     80.982    120.271 102.094123     0.0591     0.3174     1.3562   2853.184  0.000e+00
      0.344    17.4366     7.7661     81.114    120.278 102.094124     0.0591     0.3143     1.3550   2853.184  0.000e+00
      0.340    17.4315     7.7602     81.044    120.090 101.921917     0.0590     0.3204     1.3599   2853.160  0.000e+00
      0.324    17.4255     7.7486     80.913    120.208 102.008023     0.0591     0.3174     1.3562   2853.172  0.000e+00
      0.306    17.4234     7.7172     80.582    120.214 102.008024     0.0591     0.3174     1.3782   2853.172  0.000e+00
      0.286    17.4247     7.6830     80.226    120.312 102.094127     0.0591     0.3204     1.3794   2853.184  0.000e+00
      0.280    17.4303     7.6713     80.114    120.398 102.180230     0.0592     0.3143     1.3758   2853.195  0.000e+00
      0.285    17.4368     7.6919     80.340    120.379 102.180228     0.0592     0.3174     1.3770   2853.195  0.000e+00
      0.305    17.4377     7.7387     80.830    120.275 102.094123     0.0591     0.3143     1.3574   2853.184  0.000e+00
      0.335    17.4365     7.7905     81.369    120.279 102.094124     0.0591     0.3265     1.3611   2853.184  0.000e+00
      0.354    17.4344     7.8116     81.585    120.183 102.008020     0.0591     0.3174     1.3538   2853.172  0.000e+00
      0.357    17.4303     7.8050     81.509    119.992 101.835815     0.0590     0.3143     1.3587   2853.148  0.000e+00
      0.336    17.4320     7.7671     81.117    119.886 101.749711     0.0589     0.3204     1.3428   2853.137  0.000e+00
      0.304    17.4295     7.7017     80.429    120.096 101.921918     0.0590     0.3204     1.3428   2853.160  0.000e+00
      0.270    17.4209     7.6099     79.456    120.019 101.835817     0.0590     0.3204     1.3477   2853.148  0.000e+00
      0.249    17.4134     7.5139     78.442    120.277 102.036728     0.0591     0.3265     1.3440   2853.176  0.000e+00
      0.248    17.4111     7.4408     77.675    120.452 102.180236     0.0592     0.3235     1.3770   2853.195  0.000e+00
      0.269    17.4176     7.4242     77.512    120.434 102.180234     0.0592     0.3174     1.3758   2853.195  0.000e+00
      0.296    17.4233     7.4506     77.797    120.316 102.094128     0.0591     0.3204     1.3782   2853.184  0.000e+00
      0.311    17.4254     7.4893     78.205    120.006 101.835816     0.0590     0.3204     1.3794   2853.148  0.000e+00
      0.304    17.4278     7.5235     78.566    119.999 101.835815     0.0590     0.3174     1.3538   2853.148  0.000e+00
      0.280    17.4130     7.5435     78.751    120.041 101.835820     0.0590     0.3235     1.3574   2853.148  0.000e+00
      0.236    17.3753     7.5564     78.824    120.283 101.950636     0.0591     0.3235     1.3538   2853.164  0.000e+00
      0.206    17.3508     7.5850     79.082    120.420 102.008047     0.0592     0.3204     1.3562   2853.172  0.000e+00
      0.211    17.3458     7.6595     79.851    120.435 102.008048     0.0592     0.3265     1.3465   2853.172  0.000e+00
      0.239    17.3628     7.7680     81.010    120.488 102.094147     0.0592     0.3235     1.3452   2853.184  0.000e+00
      0.279    17.3833     7.9164     82.592    120.430 102.094141     0.0592     0.3204     1.3428   2853.184  0.000e+00
      0.317    17.3964     8.0851     84.375    120.189 101.921929     0.0591     0.3204     1.3416   2853.160  0.000e+00
